File: Assignment_1/A1_part2/guesses.txt
!!!!!!!!!!!!!!!!!!!!
!!!234what
!!11loverbea
!!96321a
!!mrsj!!
!!reality
!$#lori2008
!&quot;blu!&quot;
!(20theta851@%
!1085110851!
!1976jared!
!1YodaCloe2@
!1qazxsw2
!1wizards
!4KaileE7!
!571mojo
!@#$%
!@#$%^&amp;*as12
!@#bob123marley
!@je1234sus!!
!@qwas
!Darlyn89
!ExtrA$
!QAZ2wsx
!QAZxsw2
!Sw0vtRbBbF
!belly!
!c3hammer
!charney33
!cunt4$
!easy2345
!eileen!
!h3llf1r3
!hack
!iloveing
!iz@rd
!lexmark16
!matchbox22
!mike!
!moneyMAKer!
!mt_7genius
!mystories**
!n^IsI813
!nimloth
!promoce2006
!q@w3e4r
!qaz1QAZ
!sarock1!
!suGarp0ps
!tm3boyz!
!track720
!wdxas01!
!westpalm
!wiki2!
!write4monet
!zztop869!
#!9746121
#!eds19421
#!pmhffx61
##flash123
#$%@sion124
#$sage
#00017
#09265
#1-firstborn
#12open
#1Caramel
#1ED7325
#1Stunner
#1abba
#1angel34
#1burdine
#1charles
#1cheater
#1daddy
#1dream
#1eminem
#1g8tcher
#1godschild
#1homie
#1housekeeper
#1m0rron
#1manz
#1meech
#1model
#1mommy
#1mountain
#1nurse
#1pimp
#1playboy
#1star
#1system
#1writer
#317HDRwk!
#4150$
#42tlemonpie
#85@*ox#end#
#8balz88
#9#
#FEMNIK1
#Green3Grass#
#^$$@*&amp;#*
#akd@54*PBR
#austin1#
#herass4me
#jen05deb40
#linda$
#map22552
#mydreams#
#passer745
#silsilay#
#tubesteak
#twildad$1178#
#zxopas13
$$$$
$$$making
$$$money
$$MONEY$$315
$$ballout
$$beginnings
$$faithful12
$$gannubhia$$
$$quasar53
$085yes$
$10cranes$
$1stunna
$2taylor
$44kids
$4badgirl
$=d3ath
$@abadasa
$@nd10t
$@rk@r
$ACAssociate
$Cleopatra20
$Hackle5
$Hoznail
$IMTHATBYTCH
$Mealcook49
$Mr123?
$authoramova13
$axlotl$
$cando2008
$che&amp;me
$coreS1BgM0rsl4me
$cornor$
$daniel$
$donnovello_55
$drunkencoyote45
$e1*5w^%i_q4
$elena
$emperorj$
$es%rd6tf
$flowers1
$goddess00
$gs1905
$hae3470
$hizlep;
$holygrail$
$ilvertree
$jan0277
$m0key123
$m4869
$mini$
$mother$
$mouser1975
$n0wball
$oubhagya
$pacegirl1
$pericles05
$prvts
$r87*CQG&gt;36rkM
$rixel$
$sahebsona157$
$scrib67$
$tart4word
$tileman
$u1c1dalsw3d3
$ulabh$$
$uper$avings
$uperman
$yarg
$ynop5i5
%!1v3rB0w
%&amp;Q0g1vM
%25password
%3@wny75
%aN6t2LE
%m33vz
&#039;vijaykavi88&#039;
&amp;&amp;#233;&quot;&#039;
&amp;^9)33*225t
&amp;only14n8n
&amp;weetkad1
&amp;wild06cat
&lt;3=lonelyhunter
&lt;3my2boyz
&lt;3nevaends
&lt;INDIRECTrevival&gt;
&lt;gale&gt;50yrs
&lt;gbvbob950
&lt;than0
&quot;ilovedesi4&#039;
&quot;kenn&quot;
&quot;oldschool&quot;
(8886810sparkle
(H)ardcore99
(h3lly07
(my)account
(nnas)
(poikal)
(smothers)
(x@nd3r)
(ziman03**)
)okm0okm
******
*******
**apex**
**asd**
**bluestar**
**isurfhb**
**mite786
**ruff**
**smle
**z69**
*03204415643*
*07wookie
*1111111111
*1123581321*
*121981*
*2006_AC
*4CeCe914t$
*9Gou9ki9*
*Ethan913*
*ExcelsiorE
*F5a$Dc#_Lk8
*Joy4Me!!*
*MaryamShahrukh*
*MissPretty*
*Songbird03!
*Yulia*V
*acsh01bb
*biko24334373
*catz*
*cbattle*
*dakota05
*dakota5
*dunefrank
*jehovahg7
*kakashi011
*kclmnop
*lici16*
*liebling*
*loralei*
*lovehope
*n3Drah&amp;42E5
*nanski10
*newcareer08
*o1curmt!
*se05le
*shalle*
*shine1984
*slk4*1ads*
*smokey0919*
*solarstone6
*sophia*
*topgun35*
*u7y6t5r4
*umbrella36
*uz/86oa
*varg13
*w*8*4*6
*willow!
*write*
+266492rtba
+dentistra+
+yedlur1938
,.1234jrkk
,donovan/
,ghx,ln,ughx
,ilrdj
,u#0d5svpv
--nihongo41--
-1duckiz2sad
-RIATIahmed_
-SFluvsGD_
-football-
-moppie01-
-nikkilee
-plmnb
.
......
...rome
./AC!!!
.254163#
.Gladidag!
.adgjmptw
.admjgptw
.bulls
.daniela
.haines56
.haylee28
.joelky.
.karlo.
.m.m.m.m
.moses112
.public
/&#039;][;.
/9801594
/akira1\
/inco/
/onthier
0
0%wife2008
0-2x@L
0.123457/*-+
00)Oneida
0000
00000
000000
0000000
00000000
00000000a
00000001
00000009
0000000p
0000007
0000007j
000000S
000000wy
000001
000007
00000726
0000099999
00001111v
000015
000017
000019
00001966
00001997
000023
00003066
000032
00003955
000043
000046
000054
00007519
00009993
0000dogg
0000kibet
00010001000
000111
000120
000123456
000141228
000143bb
000173
000187
0001kv37m
000206
00026
000275
000282
000300
000315
000333
00033300
000335
00034931
000408a
000416
000420
000428
0004987
000530
000550
000555
000619
0007
000756
000777
00080008
000910
000933
000999
000imonfire
000naren000
000ptp
000v51
001001
0010195105
001032077
00110082
001111
001133
00114477885522
001147
001155
001177
0012
001212
00123
0012345
00128586
0013
0013476840663
001401
0014415319
001462
001492
001502
00151543
001577
0016
00162badguy!!
001672
001717
00178740
001907
001911
00193400sunset22
00196814
001974
001976
001981
001987
001crazyluv
001spy1
001zv3x5
00200549
00203200
0020437
002048
002115
002129
002264
0022tr
00230056m
00230230
002413700
002444
002463ljt
002490
0025234
00258
002586
002594
0026
002655
00272132
003018
003100
003106
003164
0032510103909080
0032matrix
003366
0034afff
0035JJ
0036
00400040
004103
00411411
004159
00441166
004439
004483
0046
004676
00469aze
004762
00490672d
004941
004tick4
0051374
0051688
0052126802
00530225
005344
0055121
005525
00587508
005ppp89
006007008009
006025
006092
0060pjm
006162
006165
006197
0061mako
006276
0063
006330nch
006454
0069audi
006agent
007
007&amp;008
007007
007007007
007008
0070987
007118
00713224
007288
0073735963
007411
007431
0074ever
007520
007579
007666
0077
007700
007794
007Coolbean
007Zebra
007conquest
007hpfighterjets
007jes
007lrfvl
007lucy
007max
007ndocadc
007pnr
007rabbit
007roc007
007woac
007zulufoxlema
008057
00831aSs
00870087
00870211
00870700
008797
00888072
0089158
008959
008977
008spy
008tango
0090876a
0091053
009218
009218phtar
009276x2
009291
009339
00960096
009852
00987
00990099
00991155
009934525612
009988
009991
00berc00l
00blew00
00busted
00cbrhawk
00chna11
00cmb97
00dance
00dietcoke
00dogss
00gb666777
00jemby
00kender
00luvsux
00msdo4185
00pemo
00run0
00silvato
00singerz
00smith
00sv00sv
00unix00
00zero
01001042
010098640
010100
0101005535
010101
010104
01010428
01010f
0101122306
01011962
01011980
01011988
010142
010188
010199ms
0101nemesis
01020102
010203
0102030405
01021970pancho
01022001
010273
010274
0102tif
010306
01031982
010338
010350
010382
010388
010390dr
0103939484
010398
010405
01041961
01041968
01041988
010451
010461
010473
010480
010501
01051984
01052004
0105675062
0105725901
010585
0105ridebike
010600
010605
0106221106
010658
0106742
010677
010680
010689
010689j
0106997581
0107
010701
01071983
0107625
010763
010778
01078420
0107882388
010797
010798
01080507
01080611
010808baby
01081980
01081985
0108344788
0108478
01086352
010873
010874
010879
0108861
0108love
01091978
01092002
01092005
0109770Up
010979
010982
010989
01100110
0110023
01101944
01101962
01101988
011076
0110894
0110dada
011103
01111603
01111954
01112
011151
011181
011182
011190
01121981
01121982
01122001
011235813
011279eyad
011279jfpg
011284
011289
011298
01131926
01131996
011356
011358
011369
011372
01138111
011390
011398
011401
011406920
01141110
011414
01144141BEA5001
011456
011476
011477
01148012
01149dave
01151974
01151978
01151983
01152002
011569
011594
01159638774
0115ct
0116
011600
011606
011607
011682
01169
011749st
01176519
011766
011789
011797
0117melh
01182002
01182005
011834okna
011872
011879
011891
011902
01191951
01191952
01191979
01191985
01191990
011954
011955
011978
011981
0120
012000
012001
012012374
01201975
012046
012060
012063
012075ct
012078
012086
012092
0121
012104
01212623009
012134
0121355685
012162
012178
012179
012180
012201
012210
01221968
012270
012275
012276
012299jc
012300cm
0123095649
01234186
012345
0123456
01234567
0123456789
0123456789ke
012356
012361
012364a
0123670747
012368
012381
012382
01238200
0123spd
0124130583
012452
01247778
0124jax
0125087653
012515
01251984
012524
012564
01256847
012574
012580
012581
012584
01261978
01262002
012655
012684
012692
012707rn
0127104270
01271983
01272602
012745
012754bd
012756
012779
01280128
01281974
012825
012845
01285878
012864
012875
012885
012888
012895
012902
0129519599
0129520199
012980
012983
012986
012989zoe
012golf
012sam
013019
013084
013091
013099
013106
013131
013147
0131649663
013188
013194
013198
0131KUK
0135496260
013579cf
0136233
0136714255
0137155879
013dubace
01420142
014221
0143
01430143
0146smith
01470147
0147147
0147258
01484
014916
015222
0152224
0152415820
0152436385
01524582
015268
015419
015550
015718
0157669
0160773
0165102862
016607
01670168533
0168234872
016898
017101
0171844h
01719058659
0171909499
017203
0173
01743245018
017503
017763968
0178
01793852453
017meat
018014
01819069088
0182
0182565
018332919
018601489
0187
0187545998
01880188
01880513
019060
01913983430
01930105
0199203958
01amryza
01april83
01bcs19
01betterwayc
01blue
01cairo01
01chef
01cinstorm
01counselor
01cruiser
01f6c
01faith
01g23971
01galant
01georged
01ginger01
01harley
01jun93
01peachez
01rakabouba
01redsat
01smith65
01song
01tariq
01travmar01
01von33
01wallace
01walm
01whitty
02000000
020101
02010201
020108
02011984
020140tm
020164
02020202
0202022
020203
02021966
020220
020225
020261
020270
020272
020301
020303
020304
020370a
020373
020377
0203783
020379
02038472
0203tk
020405
020419131
020455
020481
020487
0204908
020491
020493acc
0204jzz
0205
020500
020501
02050205
020505
02051960
020570
020571
020579
020582
02058428
020597
0206
02061983
02061987
02062000
020663
020674
020677
0206979
0207
020767
020786c
020789
0207ma
020803360
02081972
02081985
020821LIBRAcupid
020840
020851
020868
020873
020876
020884gatdq2
02091216
02091985
020951
020967
020980
020983
020985
02100210
02101977
021052
021063
021067
021076
021096
021099
021100
02111975
02111985
021172
021175
021197
02120219c1
02120725
02121964
02121968
021270jr
021288
021300
021372
021374ss
021383
021398
02141988
021421
021440
021458
021463
021475
021476
021481
021484
021488
021491
021492
021494
021498
021498jax
021499
021504
021512
021565
021583
02158320
021585
0215952
021598
021599
0215Carla
021608DarcyJ
021620
021642
021660795
021677
021681
021684
021688
021701
021705
021737iwu
021742
021762
021772a
021787
021790
0217trwash
0218
021807
021857
021869
021872
0218921
021901
021906
02191946
02191969
021962
021987
021light
0220045
02201974
02201976
022058022058
022069
022084
022102
0221020020
022103
022112
0221447155
022185
022205
02221975
02221980
02221993
022268
022279
022288
022294
0222976064
022298
0223
022300
022301
02231979
022370dm
022382
022399
0223sj
0224
02241964
02242007
022477
022478
022483
022495
022500
022505
022506loveu
022511
02251972
02252003
02252706
022597
022605
02261999
022662
022667we
022669
022682
022699
0226mc
0227
02270
02271984
022751
022783
022784
022792
0228
02281989
02285lpc
022864
022868
022880
022883
022890
022897
02291980
02295656
023200ac
0233097
023626
023704
023755a
023777
02406239
02411220
02425840520209522806
024367878
0243716032
024378443
0243968622ir
024600mb
024773
0249479229
025039
025150
0252
02521760
025331
0253789
02541992
025450
02556915
025987
0259lin
02602055
026622
0267674
0274245357
0274276727
02771w
028007
0285101123
02900420
02901a0239
029087
0294long
029948
0299554h
02I14R03
02Savvy02Chl
02accord
02beme
02bholya
02fullyalive
02honda
02jun75
02lincoln
02nov1965
02people
02spanky02
02west
03/mar/87
030102
03011987
0301224
030159
030178
030182
030189
03021960
03021969
030260
030270
030287
030293
030303
030304
03031959
03031975
03031986
03031988
03031998
030362
030372
030373
030380
030386
03040407
030411
03041960
030452
030477
030486
030487z
030491
030495
0304986
03050811
03051808
03051974
03051990
030530
03055106
030561
030589
0306
030600
030603
03063210
030644
030657
030679
030681
03071112yc
030712
03071972
03071989
03071990
030760bg
030781
030809
03081991
030853
030855
030857ro
030862
030866
030868
030878
030953
030963
030980
030984
03100342
03101602pwk
03101993
031043
031059
031076
031103
03110311
03111969
03111982
031177
031182
031192
0312
03121985
031221
031222
031257
031260
031287
031289
031294
031303
03131945
03131988
031362
031380
031383
031393
0314
031403
0314536
031467
031479
031480
031482
031485
031486
031487
031489
031498
03150315
031511
03152001
031553
031559
031562
031571
031576
031586
031591x
031592
0316
0316515
031688
0316db
0316mom
0316six
0317
031701
031701bk
031712
03171976
03171978
031780
031781
0317kl
031800
031876
031885
03189500
031900
03192004
031962
031967
031979
031984
031987amyb05
031988
031999
031zafir1234
032000
032003
03200320
03201978
03201983
03202007
032058
032064
032084
032085
0321
032101
032122nap
03214448427
032156
03216781306
032179
032188
0322
032202
032203
032207
03221975
03221976
03221981
03221988
03224603610
032249
0322512fv
032274
032279
032280
03228231462
032287
0323
03231990
032357
032369
03237060085
032383
032385
032391
03241972
03242005ql
032447
032475
032484
0324en
032505
03251975
03251985
03252004
032575
032581
0325nu
032603
0326272
032660
032679
032685
032687
032696
032699
032703
0327608289
032781
032797
0327jbay
032850
032866
032874
032892
032903
03290329
03291966
03291981
03291982
03294056
032955
032978
032982
032984
032985
032996
0329mom
033001
03300330
03301993
03302004
033033
03305679
033067
033077
033079
03311964
03311991
033188
033200kd
0335krqe
0340
034107
0343103431
03454751020
03459301354
03473900
035026
035055
0353491sara
03556ds
0356277124
0357911
036016
0362587482
0365
03651a0235
0367
0369
036912
0369679
037165
037584260k
037692
037742
03797209
038465
0387
0388th
038996
03908644
0393
0395A83
0397714
03997223
03aiverson
03boxster
03cobra
03dating
03dj1948
03evol
03ma03
03meenug
03ohara
03orphie
03peanut
03redgirl
03sassie
03sifting69
03soldiers
03zncrzx
04011928
04011978
040164
040193
040197
040202
040206
04021971
040255
04026060
040271
040279
040291
040295
04029500
0402Lena
0402dls75
0402hb
040308
04031965
04031981B
04031994
040323
040351
040371
040377
0403923304039233
0403ay
040406
04040925
04041958
04041992
04041996
04042002
040450
040463
040472
040481
040503
040506
04051980
040570
040572ac
040573
040580
040599
040600
040603
040607
040608
04061973
04061979
04061982
040679
040701
040702
040720
040770
040800
040802
040803
040804
04081970
04081975
04081985
0408257
040858jrp
040862
040868
040884
040888
040897
040899
040902
04091988
0409219640
040966
040990
040ygy
041007
0410081
04102006
041040
041063
041076marinishte
041078
041097
041101
04111963a
041156
041174
041179
041182
041191
04120412
04121982
04121984
0412240473
0412251618
041273
041291cd
0412a0412a
0413
04131985
041338
041364
041384
0413myle
04151933
04151958ray
04152006
041561
041572
041577
041598a
0416
041603
041605love
0416641972
041677
041680
041688
04171980
041755
041799
041900aa
04191969
041956ksh
041983
041991
041997g
0419dnt
0419octo
0420
042000
042002
04201965
042058
042064
042069
042088
042099
0420hello
042101
042105
04211696
042163
042164s
042169
042173
042183
042193
042202
042204
04221984
042240
042277
042280
042287
04229123
042295
0422dlc
04230423
04231985
042332514
042382
042383
042403
042405apr
04241981
042442
042456
042479
042480t
042485
042488
042503
042506
042506db
04252228
042571
042574
042588
042589
042590
042599
0425qe
042604
042606
04261994
04261996
04262008
0426wind
04271985
042745
042787
042788m
042801
04281955
042881
042892
042894
042896
042898
042899
042906
04292006ass
042974
042983
042984
042988
043087
043088
043099
0430patricia
0433935917
0434118
044788718
0447knight
045400
04540454
045804
046142
046408
046911
047064
0472228447
0472bob
047458m
04752354992
047581760
04760476
047740
0479IGINLA
048048
04832790550
04872478
04872552255
0489alice11l
049af7
04ami05tmm
04bm*z03
04freedom
04gt69
0500123329
0501
050101
050104
05012008
0501202
050146
050169
050180
050182*cpz*
050187
0501944636
050199
050201
05020502
0502070
0502114060
050263
050264
050270
0502794086
050282
050286
050289
050302
050306
050356
050388
0504
050402
050403
050405
05041979
050425548
050483
050489
050490korn
050492
050496
050496an
050505
050510
05051945
05051953
05051972
05051978
05052006a
05054366
050551
050565
050586
050587
0505sassy
050602anniv
05061995
0506413076
050660
050663
050675
05071231nzsu
050783
050797
0508
0508088329
05081976
05081995
050871
050881
050885
050891
050903
050907
050912ed
05092003
050947
050950
050976
050992
051000
051002
051011
05101988
051027
05111987
05111988
05111989nsch
051154
051181020203
051203
051207
051280
051300
05130513
05131980
05135403
051377
051379
051380
051382
051388
051393
051395
0513cj
0513e=mc2
051404rl
051405
05141985
05142006
051452
051496
051499
0514mdf
051502id
051504
051548
051568
051571158cres
051577
051597
051606
051677
051680
051698
05171982
05171984
051771
051780
051797
05181965
051850
051856
051871lt
051876
051878
051885
051899
051899tcc
0518chan
0519
05191974ts
051947kj
051957rlm
051961
051991
051993
0519byc
0520
052000
052005
052013
05201998
052061
052105
05211969
05211987
052157evc
052169
052181
052184
052185
0521barney
052204
05221987
05221999
052263
052264
05228six
052293
052301
052304
052306
052362
052378
052385
052391an
052397
052398030
0524
052401
052403
052407
05241994
052425
052448ed
052494
052502
052503
05251958
05251978
05253
052573
052590als
05261985
052652
052674
052677
052703cnl
05271974
052776
052791
052800
052803
052804
052804190612
052805
05281978x
05281988
05281a0466
052824
052856
052859
052878
0528857343
052891
05290529
05291969
05291977
052969
052973
052982
052993
052993sk
05300114
053003
05300924
0530146
05301998
053048
053085
053086
053094
053098
0531
053109
05311956
053124as
053165602ksj
053170
053176
053182
053183
053191
0532372
05325264
05356894
05359447592
053701
05370537
0540116
05468070ivo
054687536brian
05512240394
05528011
05530309
0554635816
0555
055582
055709705
0557dancer
05592692jor
0562317262
05658661
056677
0567dellab
0569abcd
05745015
057908
0581
058411
0585652j
0586
0586952
0594425
0599
05ahs5979
[...]
zabelard
zabelkay9687
zabko2
zaboo0225
zaboomafu1
zabusa23
zac efron
zac459
zacadoo21
zacair24
zacapa22
zacary
zacchaeus
zach01
zach1
zach1218
zach13
zach1997
zach2001
zach4ary
zach87
zach9224
zachandmeg1
zacharay
zacharek
zachari
zachariah
zacharius04
zachary
zachary03
zachary05
zachary1
zachary11
zachary1988
zachary2
zachary22
zachary3
zachary5
zachary7
zachary9
zacharyone
zachayden
zachbell
zachemdan
zachery
zachery1
zachsack
zachtom
zachwa11
zacjoslyd
zack0605
zack1220
zack152008
zack1949
zack2005
zack3070
zack369
zack6519
zackaria
zackary
zackaryw
zackben
zackery
zackie14
zackiebear1
zackliam
zacknjake
zackpoker1
zackseth1
zackss
zacky1
zacmac
zacman98
zacnjake
zacwhite
zaczac
zaddie14
zadeol121984
zadok1
zaeliamir7
zafar123
zafiro32
zaga7648
zagato
zager2
zagmaia
zagnut
zagreb56
zahara
zaharia16
zaharula
zaheer05
zaiah11
zaiboogey
zaidie
zaiful81
zain
zain12
zain786
zainab
zainab2004
zainabali128
zainali
zainul30
zaire1017
zaire105
zaire29
zaire614
zaj2004
zajka55
zajoent
zak918
zakakiah
zakandem
zakari6508
zakary7
zakerya1
zakevias
zakiah
zakiasa3211234
zakiatbfr
zakimondbabajita
zakiya
zakkwylde
zakoya61906
zale0469
zally24almoradie
zalora
zamani
zamani76
zamanisa
zamb0ni
zambaa
zamboni
zamboraresur1958
zamcal64@aol
zameer
zaminazz
zamir04
zamoose
zamorano
zamoyoni
zamparotta
zamroszita81
zamtntn1508
zamypooh
zamzowjt
zanada
zandaborga
zandala
zander
zander13
zander2
zander63
zander7
zandermommyb
zandra
zandy01
zane
zane3591552
zane4me
zanecade
zanele
zaneman
zanessa
zaney!
zaneyass
zangis
zanie11
zanied16
zanied2
zanith
zaniya1008
zaniyah7
zankeso131524
zanmato
zannee
zanules63
zany2000
zanzibar
zanzinger
zaondraneike
zap524
zap81zip
zapacita
zapallal
zapata
zapata666
zapatista
zapato
zapatos
zapatos22
zapcaa
zaphod
zaphod42
zaplan
zaporah
zappa
zappa123
zappa45
zappa69
zappafrank
zappaman
zapper
zappfilmz
zappmobile
zapsogej1
zaptowrite
zapzapzap
zaq!23eD
zaq11qaz
zaq123
zaq1234
zaq12wsx
zaq1XSW@W
zaq1ZAQ!
zaq1xsw2
zaq1zaq1
zaq2wsxx
zaqmko
zaqwed
zaqwsx
zaqxsw
zaqxswcde
zara
zaraanne
zaraby55555
zaragoza
zaranick
zarbie
zargon
zaria12
zariah1
zariah622
zarifcom
zarina
zarkent76
zarren803
zartosht
zarulja
zarzamora
zas11203
zasa1992
zashley
zasoza
zassociated
zat35zat
zathras
zatorian22
zatty5
zauvijek1
zavann
zave111
zavior24
zawerty1
zawur9du
zaxerbo3
zaxgolf
zaxmom
zaxscdvf890
zaxx69
zaxxon26
zaybxc111
zayd
zayden20
zayhaan
zaykinmoy
zayleew1
zaynab
zayquise1
zayzayzay
zaza123
zazazaza
zazazu123
zazeama5
zazen
zazen63
zazlee21
zazoo1
zazoze123
zazsxsxd
zazzo54
zazzuusa1
zb8jz
zb9631ya
zbjt6594
zbomb4ever
zboyx1414
zbs1914
zbspor1
zbt1201
zc210064d
zcds38
zcjeps
zcuz8889
zdanowicz
zdb12345
zdsngv74
zdzislaw
ze6mu9
ze7k1shm5brb
zeG3B5be
zePPelin159
zeak
zeal123
zeal2006
zealot505
zeb00
zebby1
zebediah1
zebeseth
zebra0711
zebra1
zebra33
zebra364
zebra42
zebra50
zebra6
zebrarain
zebras
zebrasmack
zebraz
zebronics
zebulan19033
zebuliah
zebznasshole
zed101
zedandkanish
zeddie
zednem23
zedody
zedster
zee786
zee9zee9
zeebster29
zeekoson
zeelan11
zeena1
zeenon
zeetan11
zeexyz12345
zeezee
zeezoo
zefashemen
zehariah1
zeher06
zehra786
zehrairfan
zeke2411
zekebrody
zekedog
zekeer
zekeey
zekeman1234
zeker
zekerboy
zekest
zekijao
zelazny
zelda
zelda.
zelda1
zelda13
zelda22
zelda7
zeldacat
zeldaj
zeldalink
zeldaone
zeldarini123
zeldas27
zelig3241
zelinsky
zell62
zellayag
zello1971
zemenu
zemmy7
zemo
zemog1zemog
zen
zen455
zen4wwxw
zena123
zena22
zena27
zena@64
zenabii6
zenadu
zenaperu
zenboy
zendog1
zendron
zengaku9
zenith
zenith11
zenith88
zenjen
zenker1
zenkutsu
zenmom
zenmonkey
zennifer
zenon2
zenraj
zensunni
zenta12
zenwisdom
zenz
zenzen
zeon22
zep123
zep317
zepfan04
zephalonia
zepher5481
zepherleddecender
zephyer
zephyer51
zephyr
zephyr624
zephyr7
zephyrstar
zephyrus
zepol8835
zepolt
zepp8488
zeppelin
zeppelin11
zeppelin12
zeppelin1974
zeppelin4
zeppelin86
zepplin
zeppydoo
zeptor
zer0h0ur
zeravla
zerbe29
zerbert
zerg447
zermatt
zero
zero000
zero1234
zero31
zero555
zero98
zero_cool
zerocat
zerocool
zerocool1
zerodog1
zeroesone
zerohour
zerokool
zeropmcc
zeros
zeroshift
zerox89
zeroz777
zerrian10
zesiger777
zessaaj2009
zeston
zeta
zeta02
zeta123
zeta4life
zeta88
zetawing5
zetbliss333
zetzet
zeus0517
zeus12
zeus123
zeus143
zeus2007
zeus206
zeus2adf
zeus4u72
zeus99
zeusdog1
zeusera
zeuskira
zeusmumra
zevesau
zevs8502
zeynep
zezils
zezzzz
zgm123z
zgonzalez
zgp111222
zguljiver
zh3npia0l1an
zh4nme10
zhAQ4p9Z
zhang11111111111
zhang8485384
zhangying
zhanidel
zhara8391
zharia
zhazha15
zherwell86
zhexuexi
zhianna12
zhiyi
zhjiale123
zho77aaa
zhongfu
zhongshan
zhou861113
zhuoru
zia2691
ziaahmed
ziaanass!@#
zianne
ziavim
zibberq78
zicominc
zidane
zidane1992
zidane787
zidonik1
ziegemeier1
zienelle
zieuer
ziffel
zifftoon
ziggerina
ziggetywink9
ziggey
ziggieo
ziggy
ziggy06
ziggy1
ziggy10522
ziggy1962
ziggy2008
ziggy631
ziggy73
ziggy83
ziggyar
ziggydog
ziggymar1972
ziggys
ziggyziggy
zigmoid69
zigmundsboza
zigzag
zijdac7
ziko55
zildjain1
zildjian
zildjian22
zilodarp
zilrme
zima07
zimba
zimbabwe
zimbalis
zimhinagho1
zimkid89
zimmer
zimmermann
zimmyzimm
zimzim
zinc30
zing
zing4u
zinger
zinho1
zinhom
zinkoman1
zinkpro
zinn36
zinnia250
zinnia64
zinnia73
zinobia
ziolek2
zion
zion007
zion07
zion102401
zion2008
zionariel
zionbound
zionmyson91
zip46
zip80812
zip85027
zip88pity
zipdisk
zipisco
ziplee
ziplock
zipocoffietiny
zippej
zipper
zipperhead59
zippo233
zippo9207
zipporah
zipporah1
zipporah99
zippos2
zippy1
zippy111
zippy2zing
zippy77
zippyx55
zipthepin
zipzap4
zirana12
zirete
zirkazog
zisser
ziting
zito18
zivile123
zivszivs1
ziwosxnp
zixa367
ziyal1
zizipus
zizou
zjataa01
zjdand&amp;cmd2!
zjh123456789
zjk121
zjp9198
zjqwy2
zkitty
zlochower
zlover06
zm2003
zm651944
zman
zman86
zmhxpq
zmi042
zmna96
zmnamnqmn
zmnrclvy
zmorpflop3
zmprre
zmrk88
zmw4aE7dnp
zmz100
znetcrow
znjofra
znook123
zobear
zobquw
zocalo
zodiac
zodiac12
zodiac67
zoe1white
zoe2175
zoe42005
zoe635
zoeanise29
zoeaoife
zoebaby
zoebowie
zoeboy7
zoecat
zoegirl
zoeley
zoelle17
zoeluiz
zoemccusker
zoepound6
zoerosie
zoes5babu
zoesmom
zoesmommy
zoester
zoey
zoey0627
zoey1
zoey11
zoey123
zoey14
zoey21
zoey2me
zoeyg1rl
zoeyjane
zoeylane
zoeymax
zoeymax08
zoeyzaynahm0m
zoezoe01
zofo2112
zoie525
zoieaaron
zoinks
zol9trix
zolli
zollinger
zolo1987
zoloft
zoltrix123
zoluae00
zom108134
zombie
zombie00
zombie1
zombie13
zombie77
zombies
zombified0
zomgzors
zomzom
zonder
zone19
zone5rocks
zoners
zong9712
zonker
zonplug817
zonte
zoo123
zoo384
zoo4227
zooba1
zoobaby
zoobie
zoobop
zooeyglass
zooeyiscute
zookeeper
zookie
zoolander
zooluu
zoom.zoom
zoom314153
zoom42
zoom59
zoom98
zoomac1
zoomag
zoomboway
zoomer23179
zoomoo
zoomrn1
zoomzime4me
zoomzoom
zoon881
zoondweebe
zoons
zoonser129
zoote1
zoote123
zootsuit
zoovan
zooziepoozie
zoozoo
zope1214
zophar
zoplat
zora
zora22
zorach
zorahmarie
zorba
zorch
zorch3d
zorgly
zoria7
zorito103
zorkno
zorlac20
zormaz92764
zoro00
zoro1111
zorro
zorro07
zorro123
zorro1523
zorro711
zorrococo
zorrofox
zorros
zoso13
zote2006
zotlor24
zots22
zotyki
zoutia
zouzou1990
zowf7ouJ
zoya123
zoyezoye
zozu
zpainter
zpakqm12
zpc666
zpteyhx7
zq7045jf
zqikznp9
zqm123456
zqnqz23609
zqp9nbv
zqpm1029
zqw6q8S8
zr327cat
zrRD5S2n
zrmmpq22yr
zrmzrm
zrog
zrx1100
zs1234
zs9s7rvr
zsW6h8S2
zsandar
zsazsa
zserfv
zsfmecrose
zshade3
zsm7013391
zsofia
zssa1234
zsuscha
zsuzsika
zszszs
zta244
ztack21k
ztexpress90
ztjkx030
ztown4q
ztr16617
ztx86b
zu1lp12
zubairy
zubazuba
zubek99
zuber82
zubin
zucchini
zudanax
zudzer
zue866
zues22
zuesisgod9
zuess2
zugmxe32
zugspitz
zugzug
zuidema
zuidholland
zuki411
zukina
zulatina
zulema
zulemita
zuleyka14
zulkef97
zullinamy
zulqarni
zultan
zulu1300
zulu16
zuma10
zuma1142
zummki123
zumzum
zungha
zuni00
zunsweier08
zurczurc
zurich
zurie1
zuriel
zuriel2007
zuriga
zurk1234
zurriola
zuvihuju
zuzu02
zuzu1959
zuzu69
zuzuking
zuzuwrites
zuzuzu3
zvbxrpl4thx
zvezda
zvgkwwdz
zvgt63zv
zvornik
zw99618501
zwater
zwct11791
zweebo
zwei89
zwonka
zwqzwqzwqzwq
zwx329
zx1018mk
zx10rrrrr
zx1200rx
zx249j
zx311x
zxasqw12
zxasqw1234
zxc123
zxc123vbn
zxc321dc
zxc90623
zxcasd123
zxcdsa
zxcdsaqwe
zxcjin
zxckjc
zxcqwe123
zxcv12
zxcv123!
zxcv17ssao
zxcvasdfqwer5
zxcvb12
zxcvb321
zxcvbn
zxcvbn1
zxcvbnm
zxcvbnm,
zxcvbnm12
zxcvbnm?
zxcvbnml
zxcvcxz
zxcvvcxz
zxcvzxcv
zxczxck
zxdvcmg
zxkrjrb
zxorb452
zxzxzx
zxzxzxzx
zyJ4XYT4
zyairs123
zybercatz
zybss477
zycflex6
zydeco83
zydecodancer
zygoat
zygote
zyhtna
zyiona
zylan24
zymmix9
zymmks
zynk
zyshonn5
zyupk63
zyzYGY1
zyzyk~2009
zz012580
zz0346
zz1024
zz1214zz
zz1310zz
zz1968ab
zz45ck381
zzappp
zzbell0506
zzdottia0007
zzen1220
zzgrizzman
zziemele
zziggy2
zzoeen0Z
zzub52
zzxcvbnmm12
zzxx1212
zzxxccvv
zzyzxx
zzz0998
zzz111
zzzzz
zzzzzz
zzzzzzzz
~TWEETY
~Water-Shed+67892|
~compas~
~crank~
~dreamworks12
~writerchic101~
~~~lorna100568