File: Assignment_1/A1_part2/guesses_test.txt
!!!!!!!!!!!!!!!!!!!!
!!!234what
!!11loverbea
!!96321a
!!mrsj!!
!!reality
!$#lori2008
!&quot;blu!&quot;
!(20theta851@%
!1085110851!
!1976jared!
!1YodaCloe2@
!1qazxsw2
!1wizards
!4KaileE7!
!571mojo
!@#$%
!@#$%^&amp;*as12
!@#bob123marley
!@je1234sus!!
!@qwas
!Darlyn89
!ExtrA$
!QAZ2wsx
!QAZxsw2
!Sw0vtRbBbF
!belly!
!c3hammer
!charney33
!cunt4$
!easy2345
!eileen!
!h3llf1r3
!hack
!iloveing
!iz@rd
!lexmark16
!matchbox22
!mike!
!moneyMAKer!
!mt_7genius
!mystories**
!n^IsI813
!nimloth
!promoce2006
!q@w3e4r
!qaz1QAZ
!sarock1!
!suGarp0ps
!tm3boyz!
!track720
!wdxas01!
!westpalm
!wiki2!
!write4monet
!zztop869!
#!9746121
#!eds19421
#!pmhffx61
##flash123
#$%@sion124
#$sage
#00017
#09265
#1-firstborn
#12open
#1Caramel
#1ED7325
#1Stunner
#1abba
#1angel34
#1burdine
#1charles
#1cheater
#1daddy
#1dream
#1eminem
#1g8tcher
#1godschild
#1homie
#1housekeeper
#1m0rron
#1manz
#1meech
#1model
#1mommy
#1mountain
#1nurse
#1pimp
#1playboy
#1star
#1system
#1writer
#317HDRwk!
#4150$
#42tlemonpie
#85@*ox#end#
#8balz88
#9#
#FEMNIK1
#Green3Grass#
#^$$@*&amp;#*
#akd@54*PBR
#austin1#
#herass4me
#jen05deb40
#linda$
#map22552
#mydreams#
#passer745
#silsilay#
#tubesteak
#twildad$1178#
#zxopas13
$$$$
$$$making
$$$money
$$MONEY$$315
$$ballout
$$beginnings
$$faithful12
$$gannubhia$$
$$quasar53
$085yes$
$10cranes$
$1stunna
$2taylor
$44kids
$4badgirl
$=d3ath
$@abadasa
$@nd10t
$@rk@r
$ACAssociate
$Cleopatra20
$Hackle5
$Hoznail
$IMTHATBYTCH
$Mealcook49
$Mr123?
$authoramova13
$axlotl$
$cando2008
$che&amp;me
$coreS1BgM0rsl4me
$cornor$
$daniel$
$donnovello_55
$drunkencoyote45
$e1*5w^%i_q4
$elena
$emperorj$
$es%rd6tf
$flowers1
$goddess00
$gs1905
$hae3470
$hizlep;
$holygrail$
$ilvertree
$jan0277
$m0key123
$m4869
$mini$
$mother$
$mouser1975
$n0wball
$oubhagya
$pacegirl1
$pericles05
$prvts
$r87*CQG&gt;36rkM
$rixel$
$sahebsona157$
$scrib67$
$tart4word
$tileman
$u1c1dalsw3d3
$ulabh$$
$uper$avings
$uperman
$yarg
$ynop5i5
%!1v3rB0w
%&amp;Q0g1vM
%25password
%3@wny75
%aN6t2LE
%m33vz
&#039;vijaykavi88&#039;
&amp;&amp;#233;&quot;&#039;
&amp;^9)33*225t
&amp;only14n8n
&amp;weetkad1
&amp;wild06cat
&lt;3=lonelyhunter
&lt;3my2boyz
&lt;3nevaends
&lt;INDIRECTrevival&gt;
&lt;gale&gt;50yrs
&lt;gbvbob950
&lt;than0
&quot;ilovedesi4&#039;
&quot;kenn&quot;
&quot;oldschool&quot;
(8886810sparkle
(H)ardcore99
(h3lly07
(my)account
(nnas)
(poikal)
(smothers)
(x@nd3r)
(ziman03**)
)okm0okm
******
*******
**apex**
**asd**
**bluestar**
**isurfhb**
**mite786
**ruff**
**smle
**z69**
*03204415643*
*07wookie
*1111111111
*1123581321*
*121981*
*2006_AC
*4CeCe914t$
*9Gou9ki9*
*Ethan913*
*ExcelsiorE
*F5a$Dc#_Lk8
*Joy4Me!!*
*MaryamShahrukh*
*MissPretty*
*Songbird03!
*Yulia*V
*acsh01bb
*biko24334373
*catz*
*cbattle*
*dakota05
*dakota5
*dunefrank
*jehovahg7
*kakashi011
*kclmnop
*lici16*
*liebling*
*loralei*
*lovehope
*n3Drah&amp;42E5
*nanski10
*newcareer08
*o1curmt!
*se05le
*shalle*
*shine1984
*slk4*1ads*
*smokey0919*
*solarstone6
*sophia*
*topgun35*
*u7y6t5r4
*umbrella36
*uz/86oa
*varg13
*w*8*4*6
*willow!
*write*
+266492rtba
+dentistra+
+yedlur1938
,.1234jrkk
,donovan/
,ghx,ln,ughx
,ilrdj
,u#0d5svpv
--nihongo41--
-1duckiz2sad
-RIATIahmed_
-SFluvsGD_
-football-
-moppie01-
-nikkilee
-plmnb
.
......
...rome
./AC!!!
.254163#
.Gladidag!
.adgjmptw
.admjgptw
.bulls
.daniela
.haines56
.haylee28
.joelky.
.karlo.
.m.m.m.m
.moses112
.public
/&#039;][;.
/9801594
/akira1\
/inco/
/onthier
0
0%wife2008
0-2x@L
0.123457/*-+
00)Oneida
0000
00000
000000
0000000
00000000
00000000a
00000001
00000009
0000000p
0000007
0000007j
000000S
000000wy
000001
000007
00000726
0000099999
00001111v
000015
000017
000019
00001966
00001997
000023
00003066
000032
00003955
000043
000046
000054
00007519
00009993
0000dogg
0000kibet
00010001000
000111
000120
000123456
000141228
000143bb
000173
000187
0001kv37m
000206
00026
000275
000282
000300
000315
000333
00033300
000335
00034931
000408a
000416
000420
000428
0004987
000530
000550
000555
000619
0007
000756
000777
00080008
000910
000933
000999
000imonfire
000naren000
000ptp
000v51
001001
0010195105
001032077
00110082
001111
001133
00114477885522
001147
001155
001177
0012
001212
00123
0012345
00128586
0013
0013476840663
001401
0014415319
001462
001492
001502
00151543
001577
0016
00162badguy!!
001672
001717
00178740
001907
001911
00193400sunset22
00196814
001974
001976
001981
001987
001crazyluv
001spy1
001zv3x5
00200549
00203200
0020437
002048
002115
002129
002264
0022tr
00230056m
00230230
002413700
002444
002463ljt
002490
0025234
00258
002586
002594
0026
002655
00272132
003018
003100
003106
003164
0032510103909080
0032matrix
003366
0034afff
0035JJ
0036
00400040
004103
00411411
004159
00441166
004439
004483
0046
004676
00469aze
004762
00490672d
004941
004tick4
0051374
0051688
0052126802
00530225
005344
0055121
005525
00587508
005ppp89
006007008009
006025
006092
0060pjm
006162
006165
006197
0061mako
006276
0063
006330nch
006454
0069audi
006agent
007
007&amp;008
007007
007007007
007008
0070987
007118
00713224
007288
0073735963
007411
007431
0074ever
007520
007579
007666
0077
007700
007794
007Coolbean
007Zebra
007conquest
007hpfighterjets
007jes
007lrfvl
007lucy
007max
007ndocadc
007pnr
007rabbit
007roc007
007woac
007zulufoxlema
008057
00831aSs
00870087
00870211
00870700
008797
00888072
0089158
008959
008977
008spy
008tango
0090876a
0091053
009218
009218phtar
009276x2
009291
009339
00960096
009852
00987
00990099
00991155
009934525612
009988
009991
00berc00l
00blew00
00busted
00cbrhawk
00chna11
00cmb97
00dance
00dietcoke
00dogss
00gb666777
00jemby
00kender
00luvsux
00msdo4185
00pemo
00run0
00silvato
00singerz
00smith
00sv00sv
00unix00
00zero
01001042
010098640
010100
0101005535
010101
010104
01010428
01010f
0101122306
01011962
01011980
01011988
010142
010188
010199ms
0101nemesis
01020102
010203
0102030405
01021970pancho
01022001
010273
010274
0102tif
010306
01031982
010338
010350
010382
010388
010390dr
0103939484
010398
010405
01041961
01041968
01041988
010451
010461
010473
010480
010501
01051984
01052004
0105675062
0105725901
010585
0105ridebike
010600
010605
0106221106
010658
0106742
010677
010680
010689
010689j
0106997581
0107
010701
01071983
0107625
010763
010778
01078420
0107882388
010797
010798
01080507
01080611
010808baby
01081980
01081985
0108344788
0108478
01086352
010873
010874
010879
0108861
0108love
01091978
01092002
01092005
0109770Up
010979
010982
010989
01100110
0110023
01101944
01101962
01101988
011076
0110894
0110dada
011103
01111603
01111954
01112
011151
011181
011182
011190
01121981
01121982
01122001
011235813
011279eyad
011279jfpg
011284
011289
011298
01131926
01131996
011356
011358
011369
011372
01138111
011390
011398
011401
011406920
01141110
011414
01144141BEA5001
011456
011476
011477
01148012
01149dave
01151974
01151978
01151983
01152002
011569
011594
01159638774
0115ct
0116
011600
011606
011607
011682
01169
011749st
01176519
011766
011789
011797
0117melh
01182002
01182005
011834okna
011872
011879
011891
011902
01191951
01191952
01191979
01191985
01191990
011954
011955
011978
011981
0120
012000
012001
012012374
01201975
012046
012060
012063
012075ct
012078
012086
012092
0121
012104
01212623009
012134
0121355685
012162
012178
012179
012180
012201
012210
01221968
012270
012275
012276
012299jc
012300cm
0123095649
01234186
012345
0123456
01234567
0123456789
0123456789ke
012356
012361
012364a
0123670747
012368
012381
012382
01238200
0123spd
0124130583
012452
01247778
0124jax
0125087653
012515
01251984
012524
012564
01256847
012574
012580
012581
012584
01261978
01262002
012655
012684
012692
012707rn
0127104270
01271983
01272602
012745
012754bd
012756
012779
01280128
01281974
012825
012845
01285878
012864
012875
012885
012888
012895
012902
0129519599
0129520199
012980
012983
012986
012989zoe
012golf
012sam
013019
013084
013091
013099
013106
013131
013147
0131649663
013188
013194
013198
0131KUK
0135496260
013579cf
0136233
0136714255
0137155879
013dubace
01420142
014221
0143
01430143
0146smith
01470147
0147147
0147258
01484
014916
015222
0152224
0152415820
0152436385
01524582
015268
015419
015550
015718
0157669
0160773
0165102862
016607
01670168533
0168234872
016898
017101
0171844h
01719058659
0171909499
017203
0173
01743245018
017503
017763968
0178
01793852453
017meat
018014
01819069088
0182
0182565
018332919
018601489
0187
0187545998
01880188
01880513
019060
01913983430
01930105
0199203958
01amryza
01april83
01bcs19
01betterwayc
01blue
01cairo01
01chef
01cinstorm
01counselor
01cruiser
01f6c
01faith
01g23971
01galant
01georged
01ginger01
01harley
01jun93
01peachez
01rakabouba
01redsat
01smith65
01song
01tariq
01travmar01
01von33
01wallace
01walm
01whitty
02000000
020101
02010201
020108
02011984
020140tm
020164
02020202
0202022
020203
02021966
020220
020225
020261
020270
020272
020301
020303
020304
020370a
020373
020377
0203783
020379
02038472
0203tk
020405
020419131
020455
020481
020487
0204908
020491
020493acc
0204jzz
0205
020500
020501
02050205
020505
02051960
020570
020571
020579
020582
02058428
020597
0206
02061983
02061987
02062000
020663
020674
020677
0206979
0207
020767
020786c
020789
0207ma
020803360
02081972
02081985
020821LIBRAcupid
020840
020851
020868
020873
020876
020884gatdq2
02091216
02091985
020951
020967
020980
020983
020985
02100210
02101977
021052
021063
021067
021076
021096
021099
021100
02111975
02111985
021172
021175
021197
02120219c1
02120725
02121964
02121968
021270jr
021288
021300
021372
021374ss
021383
021398
02141988
021421
021440
021458
021463
021475
021476
021481
021484
021488
021491
021492
021494
021498
021498jax
021499
021504
021512
021565
021583
02158320
021585
0215952
021598
021599
0215Carla
021608DarcyJ
021620
021642
021660795
021677
021681
021684
021688
021701
021705
021737iwu
021742
021762
021772a
021787
021790
0217trwash
0218
021807
021857
021869
021872
0218921
021901
021906
02191946
02191969
021962
021987
021light
0220045
02201974
02201976
022058022058
022069
022084
022102
0221020020
022103
022112
0221447155
022185
022205
02221975
02221980
02221993
022268
022279
022288
022294
0222976064
022298
0223
022300
022301
02231979
022370dm
022382
022399
0223sj
0224
02241964
02242007
022477
022478
022483
022495
022500
022505
022506loveu
022511
02251972
02252003
02252706
022597
022605
02261999
022662
022667we
022669
022682
022699
0226mc
0227
02270
02271984
022751
022783
022784
022792
0228
02281989
02285lpc
022864
022868
022880
022883
022890
022897
02291980
02295656
023200ac
0233097
023626
023704
023755a
023777
02406239
02411220
02425840520209522806
024367878
0243716032
024378443
0243968622ir
024600mb
024773
0249479229
025039
025150
0252
02521760
025331
0253789
02541992
025450
02556915
025987
0259lin
02602055
026622
0267674
0274245357
0274276727
02771w
028007
0285101123
02900420
02901a0239
029087
0294long
029948
0299554h
02I14R03
02Savvy02Chl
02accord
02beme
02bholya
02fullyalive
02honda
02jun75
02lincoln
02nov1965
02people
02spanky02
02west
03/mar/87
030102
03011987
0301224
030159
030178
030182
030189
03021960
03021969
030260
030270
030287
030293
030303
030304
03031959
03031975
03031986
03031988
03031998
030362
030372
030373
030380
030386
03040407
030411
03041960
030452
030477
030486
030487z
030491
030495
0304986
03050811
03051808
03051974
03051990
030530
03055106
030561
030589
0306
030600
030603
03063210
030644
030657
030679
030681
03071112yc
030712
03071972
03071989
03071990
030760bg
030781
030809
03081991
030853
030855
030857ro
030862
030866
030868
030878
030953
030963
030980
030984
03100342
03101602pwk
03101993
031043
031059
031076
031103
03110311
03111969
03111982
031177
031182
031192
0312
03121985
031221
031222
031257
031260
031287
031289
031294
031303
03131945
03131988
031362
031380
031383
031393
0314
031403
0314536
031467
031479
031480
031482
031485
031486
031487
031489
031498
03150315
031511
03152001
031553
031559
031562
031571
031576
031586
031591x
031592
0316
0316515
031688
0316db
0316mom
0316six
0317
031701
031701bk
031712
03171976
03171978
031780
031781
0317kl
031800
031876
031885
03189500
031900
03192004
031962
031967
031979
031984
031987amyb05
031988
031999
031zafir1234
032000
032003
03200320
03201978
03201983
03202007
032058
032064
032084
032085
0321
032101
032122nap
03214448427
032156
03216781306
032179
032188
0322
032202
032203
032207
03221975
03221976
03221981
03221988
03224603610
032249
0322512fv
032274
032279
032280
03228231462
032287
0323
03231990
032357
032369
03237060085
032383
032385
032391
03241972
03242005ql
032447
032475
032484
0324en
032505
03251975
03251985
03252004
032575
032581
0325nu
032603
0326272
032660
032679
032685
032687
032696
032699
032703
0327608289
032781
032797
0327jbay
032850
032866
032874
032892
032903
03290329
03291966
03291981
03291982
03294056
032955
032978
032982
032984
032985
032996
0329mom
033001
03300330
03301993
03302004
033033
03305679
033067
033077
033079
03311964
03311991
033188
033200kd
0335krqe
0340
034107
0343103431
03454751020
03459301354
03473900
035026
035055
0353491sara
03556ds
0356277124
0357911
036016
0362587482
0365
03651a0235
0367
0369
036912
0369679
037165
037584260k
037692
037742
03797209
038465
0387
0388th
038996
03908644
0393
0395A83
0397714
03997223
03aiverson
03boxster
03cobra
03dating
03dj1948
03evol
03ma03
03meenug
03ohara
03orphie
03peanut
03redgirl
03sassie
03sifting69
03soldiers
03zncrzx
04011928
04011978
040164
040193
040197
040202
040206
04021971
040255
04026060
040271
040279
040291
040295
04029500
0402Lena
0402dls75
0402hb
040308
04031965
04031981B
04031994
040323
040351
040371
040377
0403923304039233
0403ay
040406
04040925
04041958
04041992
04041996
04042002
040450
040463
040472
040481
040503
040506
04051980
040570
040572ac
040573
040580
040599
040600
040603
040607
040608
04061973
04061979
04061982
040679
040701
040702
040720
040770
040800
040802
040803
040804
04081970
04081975
04081985
0408257
040858jrp
040862
040868
040884
040888
040897
040899
040902
04091988
0409219640
040966
040990
040ygy
041007
0410081
04102006
041040
041063
041076marinishte
041078
041097
041101
04111963a
041156
041174
041179
041182
041191
04120412
04121982
04121984
0412240473
0412251618
041273
041291cd
0412a0412a
0413
04131985
041338
041364
041384
0413myle
04151933
04151958ray
04152006
041561
041572
041577
041598a
0416
041603
041605love
0416641972
041677
041680
041688
04171980
041755
041799
041900aa
04191969
041956ksh
041983
041991
041997g
0419dnt
0419octo
0420
042000
042002
04201965
042058
042064
042069
042088
042099
0420hello
042101
042105
04211696
042163
042164s
042169
042173
042183
042193
042202
042204
04221984
042240
042277
042280
042287
04229123
042295
0422dlc
04230423
04231985
042332514
042382
042383
042403
042405apr
04241981
042442
042456
042479
042480t
042485
042488
042503
042506
042506db
04252228
042571
042574
042588
042589
042590
042599
0425qe
042604
042606
04261994
04261996
04262008
0426wind
04271985
042745
042787
042788m
042801
04281955
042881
042892
042894
042896
042898
042899
042906
04292006ass
042974
042983
042984
042988
043087
043088
043099
0430patricia
0433935917
0434118
044788718
0447knight
045400
04540454
045804
046142
046408
046911
047064
0472228447
0472bob
047458m
04752354992
047581760
04760476
047740
0479IGINLA
048048
04832790550
04872478
04872552255
0489alice11l
049af7
04ami05tmm
04bm*z03
04freedom
04gt69
0500123329
0501
050101
050104
05012008
0501202
050146
050169
050180
050182*cpz*
050187
0501944636
050199
050201
05020502
0502070
0502114060
050263
050264
050270
0502794086
050282
050286
050289
050302
050306
050356
050388
0504
050402
050403
050405
05041979
050425548
050483
050489
050490korn
050492
050496
050496an
050505
050510
05051945
05051953
05051972
05051978
05052006a
05054366
050551
050565
050586
050587
0505sassy
050602anniv
05061995
0506413076
050660
050663
050675
05071231nzsu
050783
050797
0508
0508088329
05081976
05081995
050871
050881
050885
050891
050903
050907
050912ed
05092003
050947
050950
050976
050992
051000
051002
051011
05101988
051027
05111987
05111988
05111989nsch
051154
051181020203
051203
051207
051280
051300
05130513
05131980
05135403
051377
051379
051380
051382
051388
051393
051395
0513cj
0513e=mc2
051404rl
051405
05141985
05142006
051452
051496
051499
0514mdf
051502id
051504
051548
051568
051571158cres
051577
051597
051606
051677
051680
051698
05171982
05171984
051771
051780
051797
05181965
051850
051856
051871lt
051876
051878
051885
051899
051899tcc
0518chan
0519
05191974ts
051947kj
051957rlm
051961
051991
051993
0519byc
0520
052000
052005
052013
05201998
052061
052105
05211969
05211987
052157evc
052169
052181
052184
052185
0521barney
052204
05221987
05221999
052263
052264
05228six
052293
052301
052304
052306
052362
052378
052385
052391an
052397
052398030
0524
052401
052403
052407
05241994
052425
052448ed
052494
052502
052503
05251958
05251978
05253
052573
052590als
05261985
052652
052674
052677
052703cnl
05271974
052776
052791
052800
052803
052804
052804190612
052805
05281978x
05281988
05281a0466
052824
052856
052859
052878
0528857343
052891
05290529
05291969
05291977
052969
052973
052982
052993
052993sk
05300114
053003
05300924
0530146
05301998
053048
053085
053086
053094
053098
0531
053109
05311956
053124as
053165602ksj
053170
053176
053182
053183
053191
0532372
05325264
05356894
05359447592
053701
05370537
0540116
05468070ivo
054687536brian
05512240394
05528011
05530309
0554635816
0555
055582
055709705
0557dancer
05592692jor
0562317262
05658661
056677
0567dellab
0569abcd
05745015
057908
0581
058411
0585652j
0586
0586952
0594425
0599
05ahs5979
[...]
121989
121990
121998
121999
1219dove
1219mck
121ac11
121amj
121crashdumm
121evangel
1220
12200221
122003
12201220
12201976
12201979
122023308
122074
122078
122088
122096
1221
122103
122106
122108
12211216
122122
1221235
122146
122156
1221571450
122168
122170
122174
122181
122183
122189m
122198
122199
1221xena
122200
122204
12220420
122206
122206dc
12221978
12221RWilcox
122269
122275
122284
122289
122295
122298
1222dj
1223
122312
12231981
12231999
1223243
1223344556
122365
1223689
122375s
122378
122380
122385
122387
122389
122391
122392
122396
122398
1223jj
1224
122400
122401
122418
12242822
122437
122448
122454
122463tn
122474737
122481
122484ds
122490
122493
122493rc
122498
1224jjd
1224song
1225
122500
12250289
122505
122506
12251225
122523
122589
122598
1225luka
1225morton
12260920fllyf
12261982
1226198516
122645
1226479z
122662
122663
122668
122681
122689
122696ca
1226ke
122701mh
122704
122707
12271972
12275562
122766
122767
122770
122775
122781
122783
122787
122789
1227danelle
1227lorie
1227wagner
1228
122800
122801
122804
12281228
122824rc
122851
122852
12285556
122860
122864
122867
122875
122881
122882
122886
122887
122894
12289880aj
1228wshado
1229
12291967
12291982
122958
122967
122970
122973
122974
122980
122983
122994
1229fred
1229wed
122jbr
122moo
123
123!@#a
123#@!
123,knife
123-456
1230
12300
123001j
123003
123006
12300l
12301230
12301968
123022jel
123029te
1230456
123051
123054
123063
123077
123080
123080ed12
123086
123086sam
123093
123098
1230mae
1231
123105
12311231
12311961
123123
12312312
123123123
12312313
12312344
123123456456
123123a
123123c
123123ch
123123qweqwe
123123sdm
12312qw
123163
123165
123165sd
123182
123183
123196
123198
123199
1231992
1231trev
1232123
12321a
1232225
123255
1233
123300
123317
1233201
123321
12332112
123321aa
123321kea
12333
123378
1233moo
1234
1234$$raj
1234%&amp;/(andre
12340000
123412
12341234
12341324
12342428
1234321
1234321bbb
12344321
12344321a
12344322
1234456
12345
123451
1234512345
1234529
123454321
1234545
1234554321
123456
123456*
1234560
1234561
12345612
123456123456
123456212
1234566
12345666
1234567
12345678
12345678123
1234567889
123456789
1234567890
1234567890po
1234567891
12345678910
12345678910111213141
12345678911
123456789123456
123456789123456789
12345678912345678912
123456789987654321
123456789a
123456789b
123456789cg
123456789gate
123456789gra
123456789nir
12345678r
12345678tg
123456790
1234567a
1234567ed
1234567m
1234567p
123456ABc
123456BABA
123456Mm
123456a
123456aa
123456abc
123456asp
123456chinier
123456d
123456dsp
123456e
123456ec
123456edudon
123456g
123456h
123456jkn
123456k
123456love
123456m
123456mar
123456ok
123456poopoo
123456q
123456qq
123456qw
123456r
123456raptor
123456rei
123456rs
123456s
123456silvia
123456smb
123456t
123456trains
123456ty
123456vm
123456vs
123456we
123456xass
123456y
123456z
123456zx
123456zz
123457
12345@abcdef
12345TEG
12345_a
12345a
12345abc
12345abcde
12345as
12345cc
12345dhs
12345doug
12345imrahul
12345j
12345naji
12345qwert
12345r
12345rb
12345s
12345sao
12345t
12345tb
12345tjme
12346
123465
12347420
123485
12348765
1234F!v3
1234KIKI
1234QWER
1234REWQ
1234_a
1234aa
1234abcd
1234abcd!!
1234acassoci
1234asd
1234asdf
1234baby
1234bg
1234casss
1234cepl
1234e1234e
1234easy
1234fidelis
1234fuck1234fuck
1234heather
1234in
1234judo
1234ks
1234mcsd
1234me
1234oz
1234path
1234pino
1234pluskids
1234po
1234q.
1234qwer
1234qwerdfzx
1234rasta
1234rewq
1234rl
1234roekoe
1234rqew
1234sammy
1234sony1234
1234tova
1234u8tv
1234wayne
123505
1235060
12351235
123570
1235813
1236
1236485
123654
1236547
123654789
123654zha
12365872
123662
12369
1236987
12369874
12377950187954
123789
123789456
1237895
12379211a
1237sd63
1238
12384ljw
12399
123@@45
123DASANI
123Faye
123Goose
123Newby
123Old
123POZO
123QWASzx
123Qwert37
123Steler
123_abc
123abc
123abcde
123abcrr
123ac
123actor
123aditi+
123adonis
123algis
123aliceme
123alwaze
123aol
123ariel
123arsenal
123article
123arun123
123asa
123asd
123asd4u
123ashes
123askask
123ballet
123beha456
123bl1ng
123blacklagoon
123blahg
123blatny
123blonde
123bowie
123brave
123buns
123c4d
123caleb123
123cam456
123capote
123cat
123cc321
123chunming
123clack
123cooperace
123csl123
123cute
123dancewith
123deal
123delta
123diamond
123doctor
123done
123edc
123eliseo
123erw123
123eveve
123fjdk
123four5
123gange
123goboy
123gooding
123grandpaa
123green
123grunt
123harmony4m
123harry
123hey
123hilde
123howitzer
123iluvrs2
123indigo
123islands
123jane
123jasper123
123jesse
123jjjaz
123kamaljeet
123kayline
123kid
123kids
123kim
123lawn
123let123
123life
123liz
123love
123loveJames
123lqn
123m321
123mamiki
123mckenna
123money
123moses
123mudar
123my3
123mysha
123nak789
123nani
123nea
123netta
123nic
123nova
123nude
123ok2!
123partez
123pass
123phan
123planet
123powerbomb
123precious
123princess123
123publish
123puntagord
123pup
123qwe
123qwe4r
123qweas
123qweasd
123qweasz
123qwp
123redred
123reek
123robinz
123roche
123roger
123sally
123scoopy
123seanpc
123sexy
123sha456
123shame-o123
123shot
123sinkfish666
123skin
123stare
123steve
123stupid123
123subramanya
123successful123
123sukhwal
123sunny
123surf
123tee
123testist123
123tgs
123tomik
123tool
123victor
123warrior
123weakstuff
123wer456
123what
123win
123x123
123xxx
123xyz
123zab
123zaulek
123zxabc11
123zxc
123zzz
124057
124124
1241989
124289363
1242media
12431243
1243apr!50108
1243xxx
1244412h
1245
1245142
124555
1245689o
12457836987
1245ann
1245sf
12460m
124653
12481632
12481632beth
12487abd
124912
124917
124c41
125099
12511251
1251987
125200
125353
1254
125416
125422
12544
125544
12561256
125634
125678qwer
125698
125773res
125800
125843
125941
1259ca
125atb9
125ewr
125near
125osage
125prince
126060
12607
12613409
1261974
1261992
1264
126563262
126636
126683
126700
126800
126912
126977gg
126ace837
1270083
127046
12710127
1271marion
1272727
127310
127355
127398
127426
127600
127611aa
1276219rzp
12777
12785kLoT
127863
127888
128002
12807334
128080
1280jsm
12811111
128137
12816960
1281971
1281977
1281981
1281988
1281est3
128231974
128241
128446
1284yr36
128512
12854303
1286
128645
128717
1287baba
1288700
128988
128bob
1290zxnm
1291986
1291mamama
1292
1295lj
129600
12963
129639
1296dcshoes
12972499
1297644
12978
1297kri$hna
12981298
12989e
129azgtanen
129jak
12@v40pv
12FREDDY4U
12Juni81
12Marcusand
12QWASzx
12Stockton
12Tuxedo
12_11_91
12a34s
12ab34cd
12ac34
12adrock12
12ajm78
12and12
12apple30
12aqjqap
12ass4
12associated
12ath34
12b69a
12barblues
12beauty
12benti78
12bernie12
12bhappy
12brett28
12bri802616
12cady34
12camden
12car34draw
12carla20
12chachacha
12chair3
12chicks
12cwqdmB
12december
12delaney
12dozenn
12eastrivers
12edu254
12feb2003
12fina20
12fishermen
12fith83
12forlife
12ftdavis
12g@uge
12gables
12gage
12gages
12garage
12gauge
12gennaio
12goody
12gtshtdn
12harvest
12hp4alex17
12iloveyou
12ionr4
12is3med
12january
12jazz
12jj12jj
12jln2a4d
12joebet
12jyc34
12ka4by6
12katewill
12kids
12km76
12knight
12legion
12lincoln
12liveby
12long
12louter
12love
12many
12mawar
12mdam01
12meechy
12midnight
12milnow
12milo
12monkeys
12mother1953
12mountain
12mozart
12nacy
12nayners
12nina
12nizuts
12nst5
12oclock
12of2k7
12open
12pack
12pain
12paju
12parrots
12pass12
12pat5
12peters
12phyllis
12qazx
12qw3e4r
12qwas
12qwaszx
12qwe12
12qweasd
12rocky3
12roses
12rule
12self
12shae13
12shannon34
12shilo12
12shoe34
12sl0c0mb3
12snooks34
12spruce
12ste456ph
12stepper
12stones
12strikes
12string
12sweetcheeks
12tennismaster
12thirty7
12three
12toz21
12tribes
12watler34
12write
12x34x
12xcw6jp
12zebras
130000
130012
1300211v
1300pez
1301998345
1301dmm
130204
13022
1302ofr
13030h
13032002
1304
130405justin
130476
130490
1304ac!
13051975
13061982
130687
13068mm
1306979
130824
130891
1308914
1308is
1309
130903
130987
130988
130990
130door
131
131000
1310012
13101974
13101986
13105423
131061
131079
1310gardena
131152
131188
1312000
1313
131313
13131313
131322
131358
1313help
1313mock
1313pepe
1313q
1313texas
1314
131415
1314nj
13151719
131588
1316
131618
131619
131622
131654
131713
13171317
1317bk
1318
131816
13191
131954
131962
131969
131979
131981010516
131986
131990
1319Jac6944
131aelr
13201320
132103
13211123
132132
13221721
1322westfifth
1323
132398
132435
13245768
13247634
1324781mma
1324dsta
132511
132527
132585
1325tsoul
13261326
132654
132672yhvh
132722
132789
1327tk
13299023
132ggn00b
1330
13311331
133131
133133
1331hh
1331n41
1331ozzie
1331rk
1332976
13335141
133400
1334321
133505
133539
13362804
13363613
1336market
1337
1337h4xor
1337haXX0r
133816
133936
133999
1339lss
13409914
1340c5505
1340dude
1341
1342/70
1342825
1344matt
13459
134679
134679852
134689
134695
13479
1347ab
1348
13481112
13487_powhat
13488888
1349660
13496hwy210
134gbz
1351